day		sst(K)		H(W/m2)		LE(W/m2)	TAU(m2/s2) 
0.000000	298.113196	-8.316943	8.587457	0.077907
0.013754	298.040960	-8.013287	8.167109	0.077793
0.027508	297.968725	-7.709632	7.746761	0.077670
0.041262	297.896489	-7.405976	7.326413	0.077538
0.055016	297.824253	-7.102320	6.906065	0.077399
0.068770	297.752018	-6.798664	6.485718	0.077252
0.082524	297.679782	-6.495008	6.065370	0.077098
0.096278	297.607546	-6.191352	5.645022	0.076938
0.110032	297.535311	-5.887697	5.224674	0.076772
0.123786	297.463075	-5.584041	4.804326	0.076601
0.137540	297.361675	-5.464220	4.493166	0.076425
0.151294	297.260276	-5.344399	4.182007	0.076244
0.165049	297.158876	-5.224579	3.870847	0.076060
0.178803	297.057476	-5.104758	3.559687	0.075872
0.192557	296.956076	-4.984937	3.248528	0.075681
0.206311	296.854677	-4.865117	2.937368	0.075487
0.220065	296.753277	-4.745296	2.626208	0.075291
0.233819	296.651877	-4.625475	2.315049	0.075093
0.247573	296.550477	-4.505655	2.003889	0.074894
0.261327	296.477423	-4.371103	2.101537	0.075000
0.275081	296.404369	-4.236552	2.199185	0.075105
0.288835	296.331315	-4.102000	2.296833	0.075209
0.302589	296.258261	-3.967449	2.394482	0.075312
0.316343	296.185207	-3.832897	2.492130	0.075414
0.330097	296.112153	-3.698346	2.589778	0.075514
0.343851	296.039099	-3.563795	2.687426	0.075613
0.357605	295.966044	-3.429243	2.785074	0.075711
0.371359	295.892990	-3.294692	2.882722	0.075807
0.385113	296.403597	-0.192410	11.673071	0.075904
0.398867	296.914203	2.909872	20.463420	0.075999
0.412621	297.424810	6.012154	29.253768	0.076092
0.426375	297.935417	9.114436	38.044117	0.076184
0.440129	298.446023	12.216718	46.834466	0.076275
0.453883	298.956630	15.319000	55.624814	0.076364
0.467638	299.467236	18.421282	64.415163	0.076452
0.481392	299.977843	21.523564	73.205512	0.076538
0.495146	300.488449	24.625846	81.995860	0.076622
0.508900	300.967603	34.299872	111.622516	0.076491
0.522654	301.446758	43.973898	141.249171	0.076355
0.536408	301.925912	53.647925	170.875827	0.076214
0.550162	302.405066	63.321951	200.502482	0.076069
0.563916	302.884220	72.995978	230.129137	0.075919
0.577670	303.363374	82.670004	259.755793	0.075765
0.591424	303.842528	92.344030	289.382448	0.075607
0.605178	304.321683	102.018057	319.009103	0.075445
0.618932	304.800837	111.692083	348.635759	0.075278
0.632686	304.823298	112.322824	350.646386	0.075106
0.646440	304.845760	112.953564	352.657014	0.074930
0.660194	304.868222	113.584305	354.667642	0.074750
0.673948	304.890684	114.215045	356.678269	0.074566
0.687702	304.913145	114.845786	358.688897	0.074378
0.701456	304.935607	115.476527	360.699525	0.074186
0.715210	304.958069	116.107267	362.710152	0.073990
0.728964	304.980530	116.738008	364.720780	0.073790
0.742718	305.002992	117.368749	366.731408	0.073586
0.756472	304.625560	106.741939	344.546870	0.073984
0.770227	304.248128	96.115130	322.362333	0.074369
0.783981	303.870696	85.488320	300.177795	0.074741
0.797735	303.493264	74.861511	277.993258	0.075099
0.811489	303.115832	64.234702	255.808720	0.075443
0.825243	302.738400	53.607892	233.624183	0.075771
0.838997	302.360968	42.981083	211.439645	0.076083
0.852751	301.983536	32.354273	189.255108	0.076378
0.866505	301.606104	21.727464	167.070570	0.076656
0.880259	301.240897	18.252469	149.814622	0.076910
0.894013	300.875689	14.777475	132.558675	0.077146
0.907767	300.510482	11.302480	115.302727	0.077364
0.921521	300.145275	7.827485	98.046779	0.077562
0.935275	299.780068	4.352491	80.790832	0.077739
0.949029	299.414860	0.877496	63.534884	0.077897
0.962783	299.049653	-2.597499	46.278936	0.078033
0.976537	298.684446	-6.072493	29.022989	0.078149
0.990291	298.319239	-9.547488	11.767041	0.078243
1.004045	298.242946	-9.187776	11.284478	0.078204
1.017799	298.166654	-8.828064	10.801915	0.078160
1.031553	298.090362	-8.468352	10.319352	0.078113
1.045307	298.014069	-8.108640	9.836789	0.078061
1.059061	297.937777	-7.748928	9.354226	0.078005
1.072816	297.861484	-7.389216	8.871663	0.077945
1.086570	297.785192	-7.029504	8.389100	0.077882
1.100324	297.708900	-6.669792	7.906537	0.077814
1.114078	297.632607	-6.310080	7.423974	0.077743
1.127832	297.500877	-6.194308	6.929558	0.077666
1.141586	297.369147	-6.078535	6.435142	0.077585
1.155340	297.237416	-5.962763	5.940726	0.077501
1.169094	297.105686	-5.846990	5.446310	0.077413
1.182848	296.973956	-5.731218	4.951894	0.077321
1.196602	296.842226	-5.615446	4.457479	0.077225
1.210356	296.710495	-5.499673	3.963063	0.077127
1.224110	296.578765	-5.383901	3.468647	0.077024
1.237864	296.447035	-5.268129	2.974231	0.076919
1.251618	296.369981	-5.112457	3.044592	0.076824
1.265372	296.292928	-4.956784	3.114954	0.076726
1.279126	296.215874	-4.801112	3.185316	0.076624
1.292880	296.138821	-4.645440	3.255677	0.076518
1.306634	296.061767	-4.489768	3.326039	0.076409
1.320388	295.984714	-4.334096	3.396400	0.076295
1.334142	295.907660	-4.178424	3.466762	0.076177
1.347896	295.830607	-4.022752	3.537123	0.076055
1.361650	295.753553	-3.867080	3.607485	0.075929
1.375405	296.246233	-1.150499	12.480032	0.075797
1.389159	296.738914	1.566081	21.352579	0.075661
1.402913	297.231594	4.282662	30.225126	0.075520
1.416667	297.724274	6.999242	39.097673	0.075375
1.430421	298.216954	9.715823	47.970220	0.075225
1.444175	298.709634	12.432403	56.842768	0.075070
1.457929	299.202315	15.148984	65.715315	0.074910
1.471683	299.694995	17.865564	74.587862	0.074745
1.485437	300.187675	20.582145	83.460409	0.074575
1.499191	300.663564	29.289814	111.274725	0.074546
1.512945	301.139453	37.997484	139.089041	0.074516
1.526699	301.615342	46.705153	166.903357	0.074486
1.540453	302.091231	55.412823	194.717673	0.074456
1.554207	302.567120	64.120492	222.531989	0.074427
1.567961	303.043009	72.828161	250.346305	0.074396
1.581715	303.518898	81.535831	278.160621	0.074366
1.595469	303.994787	90.243500	305.974937	0.074336
1.609223	304.470676	98.951170	333.789253	0.074306
1.622977	304.470634	99.119305	335.106696	0.074279
1.636731	304.470592	99.287440	336.424140	0.074251
1.650485	304.470550	99.455575	337.741583	0.074224
1.664239	304.470507	99.623710	339.059026	0.074196
1.677994	304.470465	99.791845	340.376470	0.074169
1.691748	304.470423	99.959980	341.693913	0.074141
1.705502	304.470381	100.128116	343.011357	0.074113
1.719256	304.470338	100.296251	344.328800	0.074086
1.733010	304.470296	100.464386	345.646244	0.074058
1.746764	304.144426	91.268307	324.081744	0.074421
1.760518	303.818556	82.072229	302.517245	0.074780
1.774272	303.492686	72.876151	280.952746	0.075134
1.788026	303.166816	63.680072	259.388246	0.075481
1.801780	302.840946	54.483994	237.823747	0.075820
1.815534	302.515076	45.287916	216.259248	0.076149
1.829288	302.189205	36.091837	194.694748	0.076466
1.843042	301.863335	26.895759	173.130249	0.076769
1.856796	301.537465	17.699680	151.565750	0.077056
1.870550	301.180862	14.852135	135.771895	0.077325
1.884304	300.824260	12.004589	119.978041	0.077571
1.898058	300.467657	9.157044	104.184186	0.077792
1.911812	300.111054	6.309498	88.390332	0.077985
1.925566	299.754451	3.461953	72.596477	0.078146
1.939320	299.397848	0.614407	56.802623	0.078271
1.953074	299.041245	-2.233138	41.008768	0.078356
1.966828	298.684642	-5.080684	25.214914	0.078397
1.980583	298.328040	-7.928230	9.421060	0.078390
1.994337	298.261938	-7.606393	8.936743	0.078397
2.008091	298.195836	-7.284556	8.452427	0.078400
2.021845	298.129734	-6.962718	7.968111	0.078398
2.035599	298.063632	-6.640881	7.483795	0.078392
2.049353	297.997530	-6.319044	6.999479	0.078381
2.063107	297.931428	-5.997207	6.515163	0.078367
2.076861	297.865327	-5.675370	6.030847	0.078349
2.090615	297.799225	-5.353533	5.546531	0.078327
2.104369	297.733123	-5.031696	5.062214	0.078302
2.118123	297.620069	-4.976540	4.678698	0.078273
2.131877	297.507015	-4.921384	4.295182	0.078241
2.145631	297.393961	-4.866228	3.911666	0.078206
2.159385	297.280908	-4.811072	3.528150	0.078168
2.173139	297.167854	-4.755916	3.144634	0.078128
2.186893	297.054800	-4.700760	2.761118	0.078085
2.200647	296.941746	-4.645604	2.377601	0.078039
2.214401	296.828692	-4.590448	1.994085	0.077991
2.228155	296.715639	-4.535293	1.610569	0.077941
2.241909	296.654465	-4.340376	1.606003	0.077917
2.255663	296.593291	-4.145460	1.601437	0.077891
2.269417	296.532117	-3.950544	1.596871	0.077866
2.283172	296.470943	-3.755627	1.592306	0.077839
2.296926	296.409769	-3.560711	1.587740	0.077813
2.310680	296.348595	-3.365795	1.583174	0.077785
2.324434	296.287421	-3.170879	1.578608	0.077758
2.338188	296.226247	-2.975962	1.574042	0.077729
2.351942	296.165073	-2.781046	1.569476	0.077701
2.365696	296.610439	-0.175690	9.384421	0.077672
2.379450	297.055804	2.429666	17.199365	0.077643
2.393204	297.501169	5.035021	25.014310	0.077613
2.406958	297.946534	7.640377	32.829254	0.077584
2.420712	298.391899	10.245733	40.644199	0.077553
2.434466	298.837264	12.851089	48.459143	0.077522
2.448220	299.282630	15.456445	56.274088	0.077491
2.461974	299.727995	18.061801	64.089033	0.077460
2.475728	300.173360	20.667156	71.903977	0.077428
2.489482	300.601281	29.247928	98.591268	0.077300
2.503236	301.029201	37.828700	125.278560	0.077166
2.516990	301.457122	46.409472	151.965851	0.077024
2.530744	301.885042	54.990244	178.653142	0.076874
2.544498	302.312963	63.571015	205.340433	0.076717
2.558252	302.740884	72.151787	232.027725	0.076553
2.572006	303.168804	80.732559	258.715016	0.076382
2.585761	303.596725	89.313331	285.402307	0.076205
2.599515	304.024646	97.894103	312.089598	0.076020
2.613269	304.056397	97.319656	313.549770	0.075830
2.627023	304.088149	96.745209	315.009941	0.075634
2.640777	304.119901	96.170762	316.470112	0.075431
2.654531	304.151653	95.596315	317.930283	0.075222
2.668285	304.183405	95.021868	319.390454	0.075007
2.682039	304.215157	94.447421	320.850625	0.074786
2.695793	304.246908	93.872974	322.310797	0.074560
2.709547	304.278660	93.298527	323.770968	0.074327
2.723301	304.310412	92.724080	325.231139	0.074090
2.737055	303.982831	84.706402	305.580447	0.074445
2.750809	303.655250	76.688725	285.929754	0.074791
2.764563	303.327669	68.671047	266.279062	0.075126
2.778317	303.000087	60.653370	246.628370	0.075450
2.792071	302.672506	52.635693	226.977678	0.075761
2.805825	302.344925	44.618015	207.326985	0.076060
2.819579	302.017344	36.600338	187.676293	0.076344
