day		sst(K)		H(W/m2)		LE(W/m2)	TAU(m2/s2) 
0.000000	298.609049	-10.801326	11.408862	0.077839
0.013682	298.544690	-10.497998	10.938867	0.077928
0.027363	298.480331	-10.194670	10.468872	0.078009
0.041045	298.415972	-9.891342	9.998877	0.078081
0.054726	298.351613	-9.588014	9.528882	0.078145
0.068408	298.287254	-9.284686	9.058887	0.078202
0.082090	298.222895	-8.981358	8.588892	0.078250
0.095771	298.158536	-8.678030	8.118897	0.078292
0.109453	298.094177	-8.374702	7.648902	0.078326
0.123134	298.029818	-8.071374	7.178906	0.078353
0.136816	297.901556	-7.897879	6.720348	0.078375
0.150498	297.773293	-7.724384	6.261789	0.078389
0.164179	297.645031	-7.550890	5.803230	0.078398
0.177861	297.516768	-7.377395	5.344671	0.078400
0.191542	297.388506	-7.203900	4.886112	0.078396
0.205224	297.260243	-7.030405	4.427554	0.078387
0.218905	297.131981	-6.856911	3.968995	0.078373
0.232587	297.003719	-6.683416	3.510436	0.078353
0.246269	296.875456	-6.509921	3.051877	0.078329
0.259950	296.786495	-6.299471	3.007561	0.078310
0.273632	296.697535	-6.089020	2.963244	0.078289
0.287313	296.608574	-5.878569	2.918928	0.078266
0.300995	296.519613	-5.668118	2.874612	0.078240
0.314677	296.430652	-5.457668	2.830295	0.078212
0.328358	296.341691	-5.247217	2.785979	0.078181
0.342040	296.252730	-5.036766	2.741662	0.078148
0.355721	296.163769	-4.826315	2.697346	0.078111
0.369403	296.074809	-4.615864	2.653029	0.078072
0.383085	296.573295	-1.978726	10.905091	0.078031
0.396766	297.071782	0.658412	19.157152	0.077986
0.410448	297.570269	3.295550	27.409213	0.077938
0.424129	298.068756	5.932688	35.661275	0.077887
0.437811	298.567243	8.569826	43.913336	0.077834
0.451493	299.065730	11.206964	52.165397	0.077776
0.465174	299.564216	13.844103	60.417459	0.077716
0.478856	300.062703	16.481241	68.669520	0.077652
0.492537	300.561190	19.118379	76.921581	0.077585
0.506219	301.030516	27.756642	105.386843	0.077518
0.519900	301.499842	36.394905	133.852105	0.077450
0.533582	301.969168	45.033168	162.317368	0.077381
0.547264	302.438494	53.671431	190.782630	0.077310
0.560945	302.907820	62.309694	219.247892	0.077239
0.574627	303.377146	70.947956	247.713154	0.077166
0.588308	303.846472	79.586219	276.178416	0.077093
0.601990	304.315798	88.224482	304.643678	0.077018
0.615672	304.785124	96.862745	333.108940	0.076943
0.629353	304.775102	96.509441	336.885944	0.076867
0.643035	304.765079	96.156137	340.662948	0.076790
0.656716	304.755057	95.802834	344.439952	0.076713
0.670398	304.745034	95.449530	348.216955	0.076636
0.684080	304.735012	95.096226	351.993959	0.076558
0.697761	304.724989	94.742922	355.770963	0.076480
0.711443	304.714967	94.389618	359.547967	0.076401
0.725124	304.704944	94.036314	363.324971	0.076323
0.738806	304.694922	93.683010	367.101974	0.076244
0.752488	304.352968	84.846247	344.378984	0.076374
0.766169	304.011014	76.009484	321.655994	0.076505
0.779851	303.669061	67.172721	298.933004	0.076638
0.793532	303.327107	58.335957	276.210013	0.076772
0.807214	302.985153	49.499194	253.487023	0.076907
0.820896	302.643200	40.662431	230.764033	0.077042
0.834577	302.301246	31.825668	208.041043	0.077177
0.848259	301.959292	22.988905	185.318053	0.077311
0.861940	301.617339	14.152141	162.595062	0.077444
0.875622	301.267230	11.716094	145.527322	0.077573
0.889303	300.917121	9.280046	128.459582	0.077699
0.902985	300.567013	6.843999	111.391842	0.077821
0.916667	300.216904	4.407951	94.324103	0.077937
0.930348	299.866795	1.971904	77.256363	0.078046
0.944030	299.516687	-0.464144	60.188623	0.078146
0.957711	299.166578	-2.900191	43.120883	0.078233
0.971393	298.816469	-5.336238	26.053143	0.078306
0.985075	298.466360	-7.772286	8.985403	0.078361
0.998756	298.400761	-7.547041	8.513300	0.078350
1.012438	298.335161	-7.321797	8.041197	0.078338
1.026119	298.269562	-7.096552	7.569094	0.078325
1.039801	298.203962	-6.871307	7.096991	0.078310
1.053483	298.138362	-6.646063	6.624888	0.078293
1.067164	298.072763	-6.420818	6.152785	0.078274
1.080846	298.007163	-6.195573	5.680682	0.078254
1.094527	297.941563	-5.970329	5.208579	0.078232
1.108209	297.875964	-5.745084	4.736476	0.078208
1.121891	297.752365	-5.623377	4.393562	0.078181
1.135572	297.628767	-5.501670	4.050649	0.078152
1.149254	297.505169	-5.379963	3.707735	0.078120
1.162935	297.381570	-5.258256	3.364821	0.078086
1.176617	297.257972	-5.136550	3.021908	0.078050
1.190299	297.134374	-5.014843	2.678994	0.078010
1.203980	297.010775	-4.893136	2.336081	0.077968
1.217662	296.887177	-4.771429	1.993167	0.077924
1.231343	296.763579	-4.649722	1.650254	0.077876
1.245025	296.698612	-4.584790	1.606088	0.077810
1.258706	296.633645	-4.519859	1.561922	0.077744
1.272388	296.568678	-4.454928	1.517756	0.077679
1.286070	296.503711	-4.389997	1.473591	0.077614
1.299751	296.438745	-4.325065	1.429425	0.077550
1.313433	296.373778	-4.260134	1.385259	0.077487
1.327114	296.308811	-4.195203	1.341094	0.077425
1.340796	296.243844	-4.130272	1.296928	0.077364
1.354478	296.178877	-4.065340	1.252762	0.077304
1.368159	296.573264	-1.861867	8.711289	0.077245
1.381841	296.967652	0.341606	16.169815	0.077187
1.395522	297.362039	2.545080	23.628341	0.077130
1.409204	297.756426	4.748553	31.086868	0.077075
1.422886	298.150813	6.952026	38.545394	0.077020
1.436567	298.545200	9.155500	46.003920	0.076967
1.450249	298.939587	11.358973	53.462446	0.076915
1.463930	299.333974	13.562447	60.920973	0.076864
1.477612	299.728362	15.765920	68.379499	0.076815
1.491294	300.119157	22.739450	91.858185	0.076751
1.504975	300.509952	29.712980	115.336872	0.076686
1.518657	300.900748	36.686510	138.815558	0.076622
1.532338	301.291543	43.660040	162.294245	0.076557
1.546020	301.682338	50.633570	185.772931	0.076492
1.559701	302.073134	57.607101	209.251618	0.076426
1.573383	302.463929	64.580631	232.730304	0.076361
1.587065	302.854725	71.554161	256.208991	0.076295
1.600746	303.245520	78.527691	279.687677	0.076229
1.614428	303.287396	79.123597	281.992323	0.076162
1.628109	303.329272	79.719503	284.296969	0.076095
1.641791	303.371148	80.315409	286.601615	0.076029
1.655473	303.413024	80.911315	288.906261	0.075962
1.669154	303.454900	81.507221	291.210907	0.075895
1.682836	303.496776	82.103127	293.515553	0.075828
1.696517	303.538652	82.699032	295.820199	0.075761
1.710199	303.580528	83.294938	298.124845	0.075694
1.723881	303.622404	83.890844	300.429491	0.075627
1.737562	303.322848	76.955616	283.032029	0.075686
1.751244	303.023292	70.020387	265.634566	0.075748
1.764925	302.723736	63.085159	248.237103	0.075812
1.778607	302.424179	56.149930	230.839641	0.075879
1.792289	302.124623	49.214702	213.442178	0.075948
1.805970	301.825067	42.279473	196.044716	0.076020
1.819652	301.525510	35.344245	178.647253	0.076094
